level      h(m)    T(K)      P(pa)    PV(pa)      NADIR                                             LIMB
---------------------------------------------------------------------------------------------------------
    0       .00    288.15 101325.00 1193.6130    .00000    .00000    .00000    .00000    .00000    .00000
    1    300.00    286.20  97704.60  977.2475    .00000    .00000    .00000    .00000    .00000    .00000
    2    600.00    284.25  94213.55  800.1025    .00000    .00000    .00000    .00000    .00000    .00000
    3    900.00    282.30  90847.25  655.0686    .00000    .00000    .00000    .00000    .00000    .00000
    4   1200.00    280.35  87601.23  536.3248    .00000    .00000    .00000    .00000    .00000    .00000
    5   1500.00    278.40  84471.19  439.1056    .00000    .00000    .00000    .00000    .00000    .00000
    6   1800.00    276.45  81452.98  359.5092    .00000    .00000    .00000    .00000    .00000    .00000
    7   2100.00    274.50  78497.20  294.3413    .00000    .00000    .00000    .00000    .00000    .00000
    8   2400.00    272.56  75561.19  240.9863    .00000    .00000    .00000    .00000    .00000    .00000
    9   2700.00    270.61  72735.00  197.3029    .00000    .00000    .00000    .00000    .00000    .00000
   10   3000.00    268.66  70014.51  161.5379    .00000    .00000    .00000    .00000    .00000    .00000
   11   3300.00    266.71  67395.77  132.2561    .00000    .00000    .00000    .00000    .00000    .00000
   12   3600.00    264.76  64874.99  108.2821    .00000    .00000    .00000    .00000    .00000    .00000
   13   3900.00    262.82  62448.49   88.6539    .00000    .00000    .00000    .00000    .00000    .00000
   14   4200.00    260.87  60036.17   72.5837    .00000    .00000    .00000    .00000    .00000    .00000
   15   4500.00    258.92  57680.26   59.4265    .00000    .00000    .00000    .00000    .00000    .00000
   16   4800.00    256.97  55416.80   48.6543    .00000    .00000    .00000    .00000    .00000    .00000
   17   5100.00    255.03  53242.16   39.8348    .00000    .00000    .00000    .00000    .00000    .00000
   18   5400.00    253.08  51152.86   32.6139    .00000    .00000    .00000    .00000    .00000    .00000
   19   5700.00    251.13  49145.55   26.7020    .00000    .00000    .00000    .00000    .00000    .00000
   20   6000.00    249.19  47217.00   21.8618    .00000    .00000    .00000    .00000    .00000    .00000
   21   6300.00    247.24  45268.32   17.8989    .00001    .00001    .00000    .00000    .00000    .00000
   22   6600.00    245.30  43400.07   14.6544    .00001    .00001    .00001    .00000    .00000    .00000
   23   6900.00    243.35  41608.92   11.9980    .00002    .00002    .00001    .00000    .00000    .00000
   24   7200.00    241.40  39891.69    9.8231    .00004    .00003    .00002    .00001    .00000    .00000
   25   7500.00    239.46  38245.33    8.0425    .00006    .00005    .00003    .00001    .00000    .00000
   26   7800.00    237.51  36666.91    6.5846    .00010    .00008    .00005    .00002    .00000    .00000
   27   8100.00    235.57  35132.69    5.3910    .00016    .00014    .00008    .00003    .00001    .00000
   28   8400.00    233.62  33622.54    4.4138    .00025    .00022    .00014    .00006    .00001    .00000
   29   8700.00    231.68  32177.29    3.6137    .00039    .00035    .00023    .00010    .00002    .00000
   30   9000.00    229.73  30794.17    2.9587    .00061    .00054    .00037    .00017    .00004    .00000
   31   9300.00    227.79  29470.50    2.4224    .00094    .00084    .00058    .00028    .00007    .00000
   32   9600.00    225.84  28203.73    1.9833    .00142    .00128    .00091    .00046    .00013    .00001
   33   9900.00    223.90  26991.41    1.6238    .00212    .00192    .00140    .00075    .00024    .00002
   34  10200.00    222.59  25772.51    1.3294    .00308    .00282    .00210    .00118    .00040    .00004
   35  10500.00    221.60  24580.67    1.0884    .00438    .00403    .00308    .00181    .00067    .00008
   36  10800.00    220.61  23443.96     .8911    .00611    .00566    .00442    .00270    .00108    .00016
   37  11100.00    219.62  22359.80     .7296    .00837    .00780    .00621    .00396    .00170    .00029
   38  11400.00    218.63  21325.79     .5973    .01125    .01055    .00856    .00567    .00262    .00052
   39  11700.00    217.64  20339.59     .4891    .01484    .01400    .01159    .00795    .00392    .00088
   40  12000.00    216.65  19399.00     .4004    .01925    .01826    .01538    .01093    .00574    .00147
   41  12300.00    216.65  18506.23     .3278    .02424    .02311    .01979    .01454    .00810    .00234
   42  12600.00    216.65  17654.54     .2684    .02991    .02866    .02494    .01888    .01113    .00360
   43  12900.00    216.65  16842.05     .2198    .03621    .03486    .03078    .02399    .01490    .00535
   44  13200.00    216.65  16066.96     .1799    .04305    .04162    .03726    .02982    .01944    .00771
   45  13500.00    216.65  15327.53     .1473    .05028    .04881    .04426    .03632    .02479    .01078
   46  13800.00    216.65  14622.13     .1206    .05775    .05627    .05164    .04337    .03089    .01463
   47  14100.00    216.65  13949.30     .0987    .06529    .06383    .05924    .05085    .03766    .01933
   48  14400.00    216.65  13307.63     .0808    .07270    .07131    .06687    .05856    .04500    .02487
   49  14700.00    216.65  12695.47     .0662    .07980    .07851    .07433    .06633    .05273    .03122
   50  15000.00    216.65  12111.48     .0542    .08642    .08525    .08144    .07394    .06067    .03829
   51  15300.00    216.65  11554.34     .0444    .09240    .09139    .08803    .08121    .06861    .04594
   52  15600.00    216.65  11022.84     .0363    .09761    .09677    .09393    .08795    .07634    .05399
   53  15900.00    216.65  10515.78     .0297    .10196    .10130    .09902    .09400    .08366    .06223
   54  16200.00    216.65  10032.38     .0243    .10539    .10492    .10323    .09924    .09038    .07044
   55  16500.00    216.65   9571.35     .0199    .10787    .10759    .10649    .10357    .09636    .07839
   56  16800.00    216.65   9131.51     .0163    .10939    .10930    .10878    .10694    .10146    .08587
   57  17100.00    216.65   8711.88     .0134    .10999    .11007    .11011    .10932    .10560    .09270
   58  17400.00    216.65   8311.54     .0109    .10971    .10995    .11051    .11072    .10873    .09870
   59  17700.00    216.65   7929.59     .0090    .10863    .10901    .11003    .11117    .11085    .10376
   60  18000.00    216.65   7565.20     .0073    .10682    .10733    .10876    .11073    .11196    .10781
   61  18300.00    216.65   7217.68     .0060    .10438    .10499    .10678    .10948    .11213    .11080
   62  18600.00    216.65   6886.13     .0049    .10140    .10210    .10418    .10751    .11141    .11274
   63  18900.00    216.65   6569.81     .0040    .09797    .09874    .10106    .10490    .10988    .11364
   64  19200.00    216.65   6268.02     .0033    .09418    .09500    .09751    .10176    .10765    .11358
   65  19500.00    216.65   5980.09     .0027    .09012    .09098    .09362    .09819    .10482    .11262
   66  19800.00    216.65   5705.39     .0022    .08588    .08676    .08948    .09428    .10147    .11087
   67  20100.00    216.75   5443.72     .0018    .08142    .08231    .08507    .09000    .09761    .10828
   68  20400.00    217.03   5194.86     .0015    .07673    .07762    .08038    .08536    .09321    .10486
   69  20700.00    217.32   4957.37     .0012    .07207    .07294    .07567    .08064    .08861    .10095
   70  21000.00    217.61   4730.73     .0010    .06748    .06833    .07100    .07590    .08388    .09667
   71  21300.00    217.90   4514.46     .0008    .06300    .06383    .06642    .07121    .07910    .09213
   72  21600.00    218.19   4308.08     .0007    .05867    .05946    .06196    .06660    .07433    .08741
   73  21900.00    218.48   4111.13     .0005    .05451    .05527    .05766    .06212    .06963    .08260
   74  22200.00    218.77   3924.36     .0004    .05056    .05128    .05356    .05782    .06507    .07780
   75  22500.00    219.07   3746.63     .0004    .04682    .04750    .04966    .05372    .06067    .07306
   76  22800.00    219.37   3576.96     .0003    .04327    .04391    .04595    .04980    .05642    .06839
   77  23100.00    219.67   3414.97     .0002    .03993    .04053    .04245    .04608    .05236    .06385
   78  23400.00    219.96   3260.31     .0002    .03679    .03736    .03916    .04256    .04850    .05946
   79  23700.00    220.26   3112.66     .0002    .03386    .03439    .03606    .03926    .04484    .05524
   80  24000.00    220.56   2971.70     .0001    .03112    .03161    .03317    .03615    .04138    .05122
   81  24300.00    220.86   2838.38     .0001    .02859    .02905    .03050    .03328    .03817    .04744
   82  24600.00    221.16   2711.04     .0001    .02625    .02667    .02802    .03060    .03517    .04386
   83  24900.00    221.45   2589.41     .0001    .02407    .02446    .02571    .02811    .03235    .04049
   84  25200.00    221.75   2473.24     .0001    .02206    .02242    .02358    .02579    .02973    .03732
   85  25500.00    222.05   2362.28     .0000    .02020    .02053    .02160    .02365    .02730    .03436
   86  25800.00    222.35   2256.30     .0000    .01848    .01879    .01977    .02166    .02504    .03160
   87  26100.00    222.64   2155.39     .0000    .01690    .01719    .01809    .01983    .02295    .02903
   88  26400.00    222.94   2059.58     .0000    .01546    .01572    .01656    .01816    .02104    .02666
   89  26700.00    223.24   1968.04     .0000    .01414    .01438    .01514    .01662    .01927    .02447
   90  27000.00    223.54   1880.56     .0000    .01292    .01314    .01384    .01520    .01764    .02244
   91  27300.00    223.83   1796.97     .0000    .01180    .01200    .01265    .01389    .01613    .02056
   92  27600.00    224.13   1717.10     .0000    .01077    .01096    .01155    .01269    .01475    .01882
   93  27900.00    224.43   1640.78     .0000    .00983    .01000    .01054    .01159    .01348    .01722
   94  28200.00    224.73   1568.31     .0000    .00898    .00913    .00963    .01059    .01232    .01576
   95  28500.00    225.02   1499.25     .0000    .00820    .00834    .00879    .00967    .01126    .01442
   96  28800.00    225.32   1433.24     .0000    .00748    .00761    .00803    .00883    .01029    .01319
   97  29100.00    225.62   1370.13     .0000    .00683    .00695    .00733    .00806    .00940    .01206
   98  29400.00    225.91   1309.80     .0000    .00623    .00634    .00669    .00736    .00858    .01102
   99  29700.00    226.21   1252.13     .0000    .00568    .00578    .00610    .00671    .00783    .01006
  100  30000.00    226.51   1197.00     .0000    .00518    .00527    .00556    .00613    .00715    .00919
  101  30300.00    227.11   1145.43     .0000    .00472    .00480    .00506    .00558    .00651    .00837
  102  30600.00    227.71   1096.09     .0000    .00429    .00437    .00461    .00507    .00592    .00763
  103  30900.00    228.31   1048.87     .0000    .00390    .00397    .00419    .00462    .00539    .00694
  104  31200.00    228.91   1003.69     .0000    .00355    .00361    .00381    .00420    .00491    .00632
  105  31500.00    229.51    960.45     .0000    .00323    .00329    .00347    .00382    .00446    .00576
  106  31800.00    230.11    919.07     .0000    .00294    .00299    .00315    .00348    .00406    .00524
  107  32100.00    230.71    879.48     .0000    .00267    .00272    .00287    .00316    .00370    .00477
  108  32400.00    231.31    841.59     .0000    .00243    .00247    .00261    .00288    .00336    .00434
  109  32700.00    231.91    805.34     .0000    .00221    .00225    .00237    .00262    .00306    .00395
  110  33000.00    232.51    770.64     .0000    .00201    .00204    .00216    .00238    .00278    .00359
  111  33300.00    233.11    737.44     .0000    .00183    .00186    .00196    .00216    .00253    .00327
  112  33600.00    233.71    705.67     .0000    .00166    .00169    .00178    .00197    .00230    .00297
  113  33900.00    234.31    675.27     .0000    .00151    .00154    .00162    .00179    .00209    .00270
  114  34200.00    234.91    646.18     .0000    .00137    .00140    .00147    .00163    .00190    .00246
  115  34500.00    235.51    618.35     .0000    .00125    .00127    .00134    .00148    .00173    .00223
  116  34800.00    236.11    591.71     .0000    .00113    .00115    .00122    .00134    .00157    .00203
  117  35100.00    236.79    566.67     .0000    .00103    .00105    .00111    .00122    .00143    .00185
  118  35400.00    237.62    543.57     .0000    .00094    .00096    .00101    .00111    .00130    .00168
  119  35700.00    238.45    521.41     .0000    .00086    .00087    .00092    .00101    .00119    .00153
  120  36000.00    239.28    500.16     .0000    .00078    .00079    .00084    .00092    .00108    .00140
  121  36300.00    240.11    479.77     .0000    .00071    .00072    .00076    .00084    .00098    .00127
  122  36600.00    240.94    460.21     .0000    .00065    .00066    .00069    .00077    .00090    .00116
  123  36900.00    241.77    441.45     .0000    .00059    .00060    .00063    .00070    .00082    .00106
  124  37200.00    242.60    423.45     .0000    .00054    .00055    .00058    .00064    .00074    .00096
  125  37500.00    243.43    406.19     .0000    .00049    .00050    .00052    .00058    .00068    .00088
  126  37800.00    244.26    389.63     .0000    .00044    .00045    .00048    .00053    .00062    .00080
  127  38100.00    245.09    373.74     .0000    .00040    .00041    .00044    .00048    .00056    .00073
  128  38400.00    245.92    358.51     .0000    .00037    .00038    .00040    .00044    .00051    .00066
  129  38700.00    246.75    343.89     .0000    .00034    .00034    .00036    .00040    .00047    .00060
  130  39000.00    247.58    329.87     .0000    .00031    .00031    .00033    .00036    .00042    .00055
  131  39300.00    248.41    316.42     .0000    .00028    .00028    .00030    .00033    .00039    .00050
  132  39600.00    249.24    303.53     .0000    .00025    .00026    .00027    .00030    .00035    .00046
  133  39900.00    250.07    291.15     .0000    .00023    .00024    .00025    .00027    .00032    .00042
  134  40200.00    250.90    279.71     .0000    .00021    .00021    .00023    .00025    .00029    .00038
  135  40500.00    251.73    268.93     .0000    .00019    .00020    .00021    .00023    .00027    .00035
  136  40800.00    252.56    258.56     .0000    .00018    .00018    .00019    .00021    .00025    .00032
  137  41100.00    253.39    248.59     .0000    .00016    .00016    .00017    .00019    .00022    .00029
  138  41400.00    254.22    239.00     .0000    .00015    .00015    .00016    .00018    .00021    .00027
  139  41700.00    255.05    229.79     .0000    .00014    .00014    .00015    .00016    .00019    .00024
  140  42000.00    255.88    220.93     .0000    .00012    .00013    .00013    .00015    .00017    .00022
  141  42300.00    256.70    212.41     .0000    .00011    .00012    .00012    .00013    .00016    .00020
  142  42600.00    257.53    204.22     .0000    .00010    .00011    .00011    .00012    .00014    .00019
  143  42900.00    258.36    196.34     .0000    .00010    .00010    .00010    .00011    .00013    .00017
  144  43200.00    259.19    188.77     .0000    .00009    .00009    .00009    .00010    .00012    .00016
  145  43500.00    260.02    181.49     .0000    .00008    .00008    .00009    .00009    .00011    .00014
  146  43800.00    260.85    174.50     .0000    .00007    .00007    .00008    .00009    .00010    .00013
  147  44100.00    261.68    167.77     .0000    .00007    .00007    .00007    .00008    .00009    .00012
  148  44400.00    262.51    161.30     .0000    .00006    .00006    .00007    .00007    .00008    .00011
  149  44700.00    263.34    155.08     .0000    .00006    .00006    .00006    .00007    .00008    .00010
  150  45000.00    264.16    149.10     .0000    .00005    .00005    .00006    .00006    .00007    .00009
  151  45300.00    264.55    143.61     .0000    .00005    .00005    .00005    .00006    .00007    .00009
  152  45600.00    264.94    138.32     .0000    .00004    .00004    .00005    .00005    .00006    .00008
  153  45900.00    265.33    133.23     .0000    .00004    .00004    .00004    .00005    .00006    .00007
  154  46200.00    265.72    128.32     .0000    .00004    .00004    .00004    .00004    .00005    .00007
  155  46500.00    266.11    123.60     .0000    .00003    .00004    .00004    .00004    .00005    .00006
  156  46800.00    266.50    119.04     .0000    .00003    .00003    .00003    .00004    .00004    .00006
  157  47100.00    266.89    114.66     .0000    .00003    .00003    .00003    .00003    .00004    .00005
  158  47400.00    267.28    110.44     .0000    .00003    .00003    .00003    .00003    .00004    .00005
  159  47700.00    267.67    106.37     .0000    .00003    .00003    .00003    .00003    .00003    .00004
  160  48000.00    268.06    102.45     .0000    .00002    .00002    .00002    .00003    .00003    .00004
  161  48300.00    268.44     98.68     .0000    .00002    .00002    .00002    .00003    .00003    .00004
  162  48600.00    268.83     95.05     .0000    .00002    .00002    .00002    .00002    .00003    .00004
  163  48900.00    269.22     91.55     .0000    .00002    .00002    .00002    .00002    .00003    .00003
  164  49200.00    269.61     88.17     .0000    .00002    .00002    .00002    .00002    .00002    .00003
  165  49500.00    270.00     84.93     .0000    .00002    .00002    .00002    .00002    .00002    .00003
  166  49800.00    270.39     81.80     .0000    .00001    .00001    .00002    .00002    .00002    .00003
  167  50100.00    270.45     78.78     .0000    .00001    .00001    .00001    .00002    .00002    .00002
  168  50400.00    269.86     75.86     .0000    .00001    .00001    .00001    .00001    .00002    .00002
  169  50700.00    269.27     73.05     .0000    .00001    .00001    .00001    .00001    .00002    .00002
  170  51000.00    268.67     70.35     .0000    .00001    .00001    .00001    .00001    .00002    .00002
  171  51300.00    268.08     67.74     .0000    .00001    .00001    .00001    .00001    .00001    .00002
  172  51600.00    267.49     65.23     .0000    .00001    .00001    .00001    .00001    .00001    .00002
  173  51900.00    266.90     62.81     .0000    .00001    .00001    .00001    .00001    .00001    .00002
  174  52200.00    266.30     60.49     .0000    .00001    .00001    .00001    .00001    .00001    .00001
  175  52500.00    265.71     58.25     .0000    .00001    .00001    .00001    .00001    .00001    .00001
  176  52800.00    265.12     56.09     .0000    .00001    .00001    .00001    .00001    .00001    .00001
  177  53100.00    264.53     54.01     .0000    .00001    .00001    .00001    .00001    .00001    .00001
  178  53400.00    263.93     52.01     .0000    .00001    .00001    .00001    .00001    .00001    .00001
  179  53700.00    263.34     50.08     .0000    .00001    .00001    .00001    .00001    .00001    .00001
  180  54000.00    262.75     48.23     .0000    .00001    .00001    .00001    .00001    .00001    .00001
  181  54300.00    262.15     46.44     .0000    .00001    .00001    .00001    .00001    .00001    .00001
  182  54600.00    261.56     44.72     .0000    .00000    .00000    .00001    .00001    .00001    .00001
  183  54900.00    260.97     43.06     .0000    .00000    .00000    .00000    .00001    .00001    .00001
  184  55200.00    260.22     41.42     .0000    .00000    .00000    .00000    .00000    .00001    .00001
  185  55500.00    259.40     39.81     .0000    .00000    .00000    .00000    .00000    .00001    .00001
  186  55800.00    258.57     38.26     .0000    .00000    .00000    .00000    .00000    .00001    .00001
  187  56100.00    257.75     36.77     .0000    .00000    .00000    .00000    .00000    .00000    .00001
  188  56400.00    256.92     35.34     .0000    .00000    .00000    .00000    .00000    .00000    .00001
  189  56700.00    256.10     33.97     .0000    .00000    .00000    .00000    .00000    .00000    .00001
  190  57000.00    255.27     32.65     .0000    .00000    .00000    .00000    .00000    .00000    .00000
  191  57300.00    254.45     31.38     .0000    .00000    .00000    .00000    .00000    .00000    .00000
  192  57600.00    253.62     30.16     .0000    .00000    .00000    .00000    .00000    .00000    .00000
  193  57900.00    252.80     28.98     .0000    .00000    .00000    .00000    .00000    .00000    .00000
  194  58200.00    251.97     27.86     .0000    .00000    .00000    .00000    .00000    .00000    .00000
  195  58500.00    251.15     26.77     .0000    .00000    .00000    .00000    .00000    .00000    .00000
  196  58800.00    250.32     25.73     .0000    .00000    .00000    .00000    .00000    .00000    .00000
  197  59100.00    249.50     24.73     .0000    .00000    .00000    .00000    .00000    .00000    .00000
  198  59400.00    248.67     23.77     .0000    .00000    .00000    .00000    .00000    .00000    .00000
  199  59700.00    247.85     22.85     .0000    .00000    .00000    .00000    .00000    .00000    .00000
  200  60000.00    247.02     21.96     .0000    .00000    .00000    .00000    .00000    .00000    .00000
  201  60300.00    246.20     21.06     .0000    .00000    .00000    .00000    .00000    .00000    .00000
  202  60600.00    245.37     20.19     .0000    .00000    .00000    .00000    .00000    .00000    .00000
  203  60900.00    244.55     19.37     .0000    .00000    .00000    .00000    .00000    .00000    .00000
  204  61200.00    243.73     18.57     .0000    .00000    .00000    .00000    .00000    .00000    .00000
  205  61500.00    242.90     17.81     .0000    .00000    .00000    .00000    .00000    .00000    .00000
  206  61800.00    242.08     17.08     .0000    .00000    .00000    .00000    .00000    .00000    .00000
  207  62100.00    241.25     16.38     .0000    .00000    .00000    .00000    .00000    .00000    .00000
  208  62400.00    240.43     15.71     .0000    .00000    .00000    .00000    .00000    .00000    .00000
  209  62700.00    239.61     15.06     .0000    .00000    .00000    .00000    .00000    .00000    .00000
  210  63000.00    238.78     14.45     .0000    .00000    .00000    .00000    .00000    .00000    .00000
  211  63300.00    237.96     13.85     .0000    .00000    .00000    .00000    .00000    .00000    .00000
  212  63600.00    237.14     13.29     .0000    .00000    .00000    .00000    .00000    .00000    .00000
  213  63900.00    236.31     12.74     .0000    .00000    .00000    .00000    .00000    .00000    .00000
  214  64200.00    235.49     12.22     .0000    .00000    .00000    .00000    .00000    .00000    .00000
  215  64500.00    234.66     11.72     .0000    .00000    .00000    .00000    .00000    .00000    .00000
  216  64800.00    233.84     11.24     .0000    .00000    .00000    .00000    .00000    .00000    .00000
  217  65100.00    233.02     10.77     .0000    .00000    .00000    .00000    .00000    .00000    .00000
  218  65400.00    232.20     10.30     .0000    .00000    .00000    .00000    .00000    .00000    .00000
  219  65700.00    231.37      9.86     .0000    .00000    .00000    .00000    .00000    .00000    .00000
  220  66000.00    230.55      9.43     .0000    .00000    .00000    .00000    .00000    .00000    .00000
  221  66300.00    229.73      9.02     .0000    .00000    .00000    .00000    .00000    .00000    .00000
  222  66600.00    228.91      8.63     .0000    .00000    .00000    .00000    .00000    .00000    .00000
  223  66900.00    228.08      8.25     .0000    .00000    .00000    .00000    .00000    .00000    .00000
  224  67200.00    227.26      7.90     .0000    .00000    .00000    .00000    .00000    .00000    .00000
  225  67500.00    226.44      7.55     .0000    .00000    .00000    .00000    .00000    .00000    .00000
  226  67800.00    225.62      7.23     .0000    .00000    .00000    .00000    .00000    .00000    .00000
  227  68100.00    224.79      6.91     .0000    .00000    .00000    .00000    .00000    .00000    .00000
  228  68400.00    223.97      6.61     .0000    .00000    .00000    .00000    .00000    .00000    .00000
  229  68700.00    223.15      6.33     .0000    .00000    .00000    .00000    .00000    .00000    .00000
  230  69000.00    222.33      6.05     .0000    .00000    .00000    .00000    .00000    .00000    .00000
  231  69300.00    221.50      5.79     .0000    .00000    .00000    .00000    .00000    .00000    .00000
  232  69600.00    220.68      5.54     .0000    .00000    .00000    .00000    .00000    .00000    .00000
  233  69900.00    219.86      5.30     .0000    .00000    .00000    .00000    .00000    .00000    .00000
  234  70200.00    219.14      5.06     .0000    .00000    .00000    .00000    .00000    .00000    .00000
  235  70500.00    218.47      4.83     .0000    .00000    .00000    .00000    .00000    .00000    .00000
  236  70800.00    217.80      4.61     .0000    .00000    .00000    .00000    .00000    .00000    .00000
  237  71100.00    217.12      4.40     .0000    .00000    .00000    .00000    .00000    .00000    .00000
  238  71400.00    216.45      4.19     .0000    .00000    .00000    .00000    .00000    .00000    .00000
  239  71700.00    215.78      4.00     .0000    .00000    .00000    .00000    .00000    .00000    .00000
  240  72000.00    215.11      3.82     .0000    .00000    .00000    .00000    .00000    .00000    .00000
  241  72300.00    214.44      3.64     .0000    .00000    .00000    .00000    .00000    .00000    .00000
  242  72600.00    213.77      3.48     .0000    .00000    .00000    .00000    .00000    .00000    .00000
  243  72900.00    213.10      3.32     .0000    .00000    .00000    .00000    .00000    .00000    .00000
  244  73200.00    212.43      3.16     .0000    .00000    .00000    .00000    .00000    .00000    .00000
  245  73500.00    211.75      3.02     .0000    .00000    .00000    .00000    .00000    .00000    .00000
  246  73800.00    211.08      2.88     .0000    .00000    .00000    .00000    .00000    .00000    .00000
  247  74100.00    210.41      2.75     .0000    .00000    .00000    .00000    .00000    .00000    .00000
  248  74400.00    209.74      2.62     .0000    .00000    .00000    .00000    .00000    .00000    .00000
  249  74700.00    209.07      2.50     .0000    .00000    .00000    .00000    .00000    .00000    .00000
  250  75000.00    208.40      2.39     .0000    .00000    .00000    .00000    .00000    .00000    .00000
  251  75300.00    207.81      2.27     .0000    .00000    .00000    .00000    .00000    .00000    .00000
  252  75600.00    207.23      2.16     .0000    .00000    .00000    .00000    .00000    .00000    .00000
  253  75900.00    206.64      2.06     .0000    .00000    .00000    .00000    .00000    .00000    .00000
  254  76200.00    206.06      1.96     .0000    .00000    .00000    .00000    .00000    .00000    .00000
  255  76500.00    205.47      1.87     .0000    .00000    .00000    .00000    .00000    .00000    .00000
  256  76800.00    204.89      1.78     .0000    .00000    .00000    .00000    .00000    .00000    .00000
  257  77100.00    204.30      1.69     .0000    .00000    .00000    .00000    .00000    .00000    .00000
  258  77400.00    203.71      1.61     .0000    .00000    .00000    .00000    .00000    .00000    .00000
  259  77700.00    203.13      1.53     .0000    .00000    .00000    .00000    .00000    .00000    .00000
  260  78000.00    202.54      1.46     .0000    .00000    .00000    .00000    .00000    .00000    .00000
  261  78300.00    201.96      1.39     .0000    .00000    .00000    .00000    .00000    .00000    .00000
  262  78600.00    201.37      1.32     .0000    .00000    .00000    .00000    .00000    .00000    .00000
  263  78900.00    200.79      1.26     .0000    .00000    .00000    .00000    .00000    .00000    .00000
  264  79200.00    200.20      1.20     .0000    .00000    .00000    .00000    .00000    .00000    .00000
  265  79500.00    199.62      1.14     .0000    .00000    .00000    .00000    .00000    .00000    .00000
  266  79800.00    199.03      1.09     .0000    .00000    .00000    .00000    .00000    .00000    .00000
  267  80100.00    198.44      1.03     .0000    .00000    .00000    .00000    .00000    .00000    .00000
  268  80400.00    197.86       .98     .0000    .00000    .00000    .00000    .00000    .00000    .00000
  269  80700.00    197.27       .93     .0000    .00000    .00000    .00000    .00000    .00000    .00000
  270  81000.00    196.69       .89     .0000    .00000    .00000    .00000    .00000    .00000    .00000
  271  81300.00    196.11       .84     .0000    .00000    .00000    .00000    .00000    .00000    .00000
  272  81600.00    195.52       .80     .0000    .00000    .00000    .00000    .00000    .00000    .00000
  273  81900.00    194.94       .76     .0000    .00000    .00000    .00000    .00000    .00000    .00000
  274  82200.00    194.35       .72     .0000    .00000    .00000    .00000    .00000    .00000    .00000
  275  82500.00    193.77       .68     .0000    .00000    .00000    .00000    .00000    .00000    .00000
  276  82800.00    193.18       .65     .0000    .00000    .00000    .00000    .00000    .00000    .00000
  277  83100.00    192.60       .62     .0000    .00000    .00000    .00000    .00000    .00000    .00000
  278  83400.00    192.01       .59     .0000    .00000    .00000    .00000    .00000    .00000    .00000
  279  83700.00    191.43       .56     .0000    .00000    .00000    .00000    .00000    .00000    .00000
  280  84000.00    190.84       .53     .0000    .00000    .00000    .00000    .00000    .00000    .00000
  281  84300.00    190.26       .50     .0000    .00000    .00000    .00000    .00000    .00000    .00000
  282  84600.00    189.67       .48     .0000    .00000    .00000    .00000    .00000    .00000    .00000
  283  84900.00    189.09       .45     .0000    .00000    .00000    .00000    .00000    .00000    .00000
  284  85200.00    188.81       .43     .0000    .00000    .00000    .00000    .00000    .00000    .00000
  285  85500.00    188.69       .41     .0000    .00000    .00000    .00000    .00000    .00000    .00000
  286  85800.00    188.57       .39     .0000    .00000    .00000    .00000    .00000    .00000    .00000
  287  86100.00    188.45       .37     .0000    .00000    .00000    .00000    .00000    .00000    .00000
  288  86400.00    188.33       .35     .0000    .00000    .00000    .00000    .00000    .00000    .00000
  289  86700.00    188.21       .33     .0000    .00000    .00000    .00000    .00000    .00000    .00000
  290  87000.00    188.08       .31     .0000    .00000    .00000    .00000    .00000    .00000    .00000
  291  87300.00    187.96       .30     .0000    .00000    .00000    .00000    .00000    .00000    .00000
  292  87600.00    187.84       .28     .0000    .00000    .00000    .00000    .00000    .00000    .00000
  293  87900.00    187.72       .27     .0000    .00000    .00000    .00000    .00000    .00000    .00000
  294  88200.00    187.60       .25     .0000    .00000    .00000    .00000    .00000    .00000    .00000
  295  88500.00    187.48       .24     .0000    .00000    .00000    .00000    .00000    .00000    .00000
  296  88800.00    187.36       .23     .0000    .00000    .00000    .00000    .00000    .00000    .00000
  297  89100.00    187.23       .22     .0000    .00000    .00000    .00000    .00000    .00000    .00000
  298  89400.00    187.11       .20     .0000    .00000    .00000    .00000    .00000    .00000    .00000
  299  89700.00    186.99       .19     .0000    .00000    .00000    .00000    .00000    .00000    .00000
  Surface Weight                                 .000000   .000000   .000000   .000000   .000000   .000000
  Tb (from Full RTM)                            217.8737  217.8876  217.9348  218.0335  218.2243  218.6115
  Tb (from Weighting Function)                  217.7563  217.7695  217.8147  217.9101  218.0957  218.4756
