level      h(m)    T(K)      P(pa)    PV(pa)      NADIR                                             LIMB
---------------------------------------------------------------------------------------------------------
    0       .00    288.15 101325.00 1193.6130    .05860    .05770    .05461    .04824    .03693    .01951
    1    300.00    286.20  97704.60  977.2475    .05972    .05880    .05569    .04930    .03798    .02045
    2    600.00    284.25  94213.55  800.1025    .06128    .06037    .05730    .05100    .03979    .02213
    3    900.00    282.30  90847.25  655.0686    .06314    .06226    .05928    .05316    .04215    .02439
    4   1200.00    280.35  87601.23  536.3248    .06518    .06434    .06151    .05563    .04492    .02714
    5   1500.00    278.40  84471.19  439.1056    .06731    .06653    .06388    .05832    .04800    .03028
    6   1800.00    276.45  81452.98  359.5092    .06946    .06875    .06631    .06113    .05129    .03376
    7   2100.00    274.50  78497.20  294.3413    .07152    .07089    .06869    .06393    .05466    .03748
    8   2400.00    272.56  75561.19  240.9863    .07335    .07280    .07087    .06658    .05798    .04134
    9   2700.00    270.61  72735.00  197.3029    .07503    .07457    .07292    .06914    .06128    .04532
   10   3000.00    268.66  70014.51  161.5379    .07654    .07617    .07481    .07156    .06450    .04938
   11   3300.00    266.71  67395.77  132.2561    .07785    .07758    .07651    .07381    .06760    .05347
   12   3600.00    264.76  64874.99  108.2821    .07895    .07877    .07800    .07586    .07053    .05753
   13   3900.00    262.82  62448.49   88.6539    .07982    .07974    .07926    .07768    .07327    .06152
   14   4200.00    260.87  60036.17   72.5837    .08030    .08031    .08012    .07910    .07562    .06526
   15   4500.00    258.92  57680.26   59.4265    .08046    .08055    .08065    .08017    .07763    .06874
   16   4800.00    256.97  55416.80   48.6543    .08037    .08054    .08091    .08096    .07934    .07198
   17   5100.00    255.03  53242.16   39.8348    .08004    .08029    .08091    .08146    .08075    .07495
   18   5400.00    253.08  51152.86   32.6139    .07949    .07981    .08066    .08169    .08184    .07762
   19   5700.00    251.13  49145.55   26.7020    .07872    .07910    .08018    .08165    .08263    .07998
   20   6000.00    249.19  47217.00   21.8618    .07775    .07820    .07947    .08134    .08312    .08200
   21   6300.00    247.24  45268.32   17.8989    .07635    .07684    .07828    .08053    .08302    .08339
   22   6600.00    245.30  43400.07   14.6544    .07477    .07531    .07691    .07947    .08263    .08441
   23   6900.00    243.35  41608.92   11.9980    .07304    .07362    .07535    .07820    .08196    .08506
   24   7200.00    241.40  39891.69    9.8231    .07119    .07179    .07363    .07674    .08102    .08535
   25   7500.00    239.46  38245.33    8.0425    .06922    .06985    .07178    .07510    .07984    .08530
   26   7800.00    237.51  36666.91    6.5846    .06716    .06781    .06982    .07330    .07845    .08492
   27   8100.00    235.57  35132.69    5.3910    .06496    .06563    .06769    .07131    .07678    .08415
   28   8400.00    233.62  33622.54    4.4138    .06259    .06327    .06536    .06907    .07481    .08295
   29   8700.00    231.68  32177.29    3.6137    .06019    .06087    .06297    .06675    .07269    .08147
   30   9000.00    229.73  30794.17    2.9587    .05777    .05845    .06055    .06436    .07044    .07977
   31   9300.00    227.79  29470.50    2.4224    .05535    .05602    .05812    .06193    .06810    .07786
   32   9600.00    225.84  28203.73    1.9833    .05293    .05359    .05567    .05947    .06569    .07577
   33   9900.00    223.90  26991.41    1.6238    .05054    .05119    .05323    .05700    .06322    .07353
   34  10200.00    222.59  25772.51    1.3294    .04796    .04860    .05060    .05429    .06045    .07085
   35  10500.00    221.60  24580.67    1.0884    .04536    .04597    .04791    .05151    .05756    .06796
   36  10800.00    220.61  23443.96     .8911    .04283    .04343    .04530    .04879    .05471    .06503
   37  11100.00    219.62  22359.80     .7296    .04040    .04097    .04277    .04615    .05191    .06208
   38  11400.00    218.63  21325.79     .5973    .03806    .03860    .04034    .04359    .04917    .05915
   39  11700.00    217.64  20339.59     .4891    .03580    .03633    .03799    .04111    .04650    .05624
   40  12000.00    216.65  19399.00     .4004    .03365    .03415    .03573    .03872    .04391    .05337
   41  12300.00    216.65  18506.23     .3278    .03160    .03207    .03358    .03644    .04141    .05058
   42  12600.00    216.65  17654.54     .2684    .02965    .03010    .03154    .03427    .03903    .04787
   43  12900.00    216.65  16842.05     .2198    .02781    .02824    .02960    .03220    .03674    .04524
   44  13200.00    216.65  16066.96     .1799    .02606    .02647    .02776    .03023    .03455    .04271
   45  13500.00    216.65  15327.53     .1473    .02441    .02479    .02602    .02835    .03247    .04027
   46  13800.00    216.65  14622.13     .1206    .02284    .02321    .02436    .02657    .03048    .03793
   47  14100.00    216.65  13949.30     .0987    .02137    .02171    .02280    .02489    .02859    .03568
   48  14400.00    216.65  13307.63     .0808    .01997    .02029    .02132    .02329    .02679    .03353
   49  14700.00    216.65  12695.47     .0662    .01865    .01895    .01992    .02178    .02508    .03147
   50  15000.00    216.65  12111.48     .0542    .01740    .01769    .01860    .02034    .02346    .02950
   51  15300.00    216.65  11554.34     .0444    .01623    .01650    .01735    .01899    .02192    .02763
   52  15600.00    216.65  11022.84     .0363    .01512    .01537    .01617    .01771    .02046    .02585
   53  15900.00    216.65  10515.78     .0297    .01408    .01431    .01506    .01650    .01909    .02415
   54  16200.00    216.65  10032.38     .0243    .01309    .01331    .01401    .01536    .01778    .02254
   55  16500.00    216.65   9571.35     .0199    .01217    .01237    .01303    .01429    .01655    .02102
   56  16800.00    216.65   9131.51     .0163    .01130    .01149    .01210    .01328    .01539    .01957
   57  17100.00    216.65   8711.88     .0134    .01048    .01066    .01123    .01232    .01430    .01821
   58  17400.00    216.65   8311.54     .0109    .00972    .00988    .01041    .01143    .01327    .01692
   59  17700.00    216.65   7929.59     .0090    .00900    .00915    .00964    .01059    .01230    .01571
   60  18000.00    216.65   7565.20     .0073    .00833    .00847    .00892    .00980    .01139    .01456
   61  18300.00    216.65   7217.68     .0060    .00770    .00783    .00825    .00907    .01054    .01349
   62  18600.00    216.65   6886.13     .0049    .00711    .00723    .00762    .00838    .00975    .01248
   63  18900.00    216.65   6569.81     .0040    .00656    .00667    .00703    .00773    .00900    .01154
   64  19200.00    216.65   6268.02     .0033    .00605    .00615    .00649    .00713    .00831    .01065
   65  19500.00    216.65   5980.09     .0027    .00557    .00567    .00598    .00657    .00766    .00983
   66  19800.00    216.65   5705.39     .0022    .00513    .00522    .00550    .00605    .00706    .00906
   67  20100.00    216.75   5443.72     .0018    .00472    .00480    .00507    .00557    .00650    .00835
   68  20400.00    217.03   5194.86     .0015    .00435    .00442    .00466    .00513    .00598    .00769
   69  20700.00    217.32   4957.37     .0012    .00400    .00407    .00429    .00472    .00551    .00709
   70  21000.00    217.61   4730.73     .0010    .00368    .00374    .00394    .00434    .00507    .00652
   71  21300.00    217.90   4514.46     .0008    .00338    .00344    .00362    .00399    .00466    .00600
   72  21600.00    218.19   4308.08     .0007    .00310    .00315    .00333    .00366    .00428    .00551
   73  21900.00    218.48   4111.13     .0005    .00285    .00290    .00305    .00336    .00393    .00506
   74  22200.00    218.77   3924.36     .0004    .00261    .00266    .00280    .00309    .00360    .00465
   75  22500.00    219.07   3746.63     .0004    .00240    .00244    .00257    .00283    .00331    .00427
   76  22800.00    219.37   3576.96     .0003    .00220    .00224    .00236    .00260    .00304    .00392
   77  23100.00    219.67   3414.97     .0002    .00202    .00205    .00216    .00238    .00278    .00359
   78  23400.00    219.96   3260.31     .0002    .00185    .00188    .00198    .00218    .00255    .00329
   79  23700.00    220.26   3112.66     .0002    .00169    .00172    .00182    .00200    .00234    .00302
   80  24000.00    220.56   2971.70     .0001    .00155    .00158    .00166    .00183    .00214    .00277
   81  24300.00    220.86   2838.38     .0001    .00142    .00145    .00153    .00168    .00196    .00254
   82  24600.00    221.16   2711.04     .0001    .00130    .00132    .00140    .00154    .00180    .00232
   83  24900.00    221.45   2589.41     .0001    .00119    .00121    .00128    .00141    .00165    .00213
   84  25200.00    221.75   2473.24     .0001    .00109    .00111    .00117    .00129    .00151    .00195
   85  25500.00    222.05   2362.28     .0000    .00100    .00102    .00107    .00118    .00138    .00179
   86  25800.00    222.35   2256.30     .0000    .00091    .00093    .00098    .00108    .00126    .00163
   87  26100.00    222.64   2155.39     .0000    .00084    .00085    .00090    .00099    .00116    .00150
   88  26400.00    222.94   2059.58     .0000    .00077    .00078    .00082    .00091    .00106    .00137
   89  26700.00    223.24   1968.04     .0000    .00070    .00071    .00075    .00083    .00097    .00126
   90  27000.00    223.54   1880.56     .0000    .00064    .00065    .00069    .00076    .00089    .00115
   91  27300.00    223.83   1796.97     .0000    .00059    .00060    .00063    .00070    .00081    .00105
   92  27600.00    224.13   1717.10     .0000    .00054    .00055    .00058    .00064    .00074    .00096
   93  27900.00    224.43   1640.78     .0000    .00049    .00050    .00053    .00058    .00068    .00088
   94  28200.00    224.73   1568.31     .0000    .00045    .00046    .00048    .00053    .00062    .00081
   95  28500.00    225.02   1499.25     .0000    .00041    .00042    .00044    .00049    .00057    .00074
   96  28800.00    225.32   1433.24     .0000    .00038    .00038    .00041    .00045    .00052    .00068
   97  29100.00    225.62   1370.13     .0000    .00035    .00035    .00037    .00041    .00048    .00062
   98  29400.00    225.91   1309.80     .0000    .00032    .00032    .00034    .00038    .00044    .00057
   99  29700.00    226.21   1252.13     .0000    .00029    .00030    .00031    .00034    .00040    .00052
  100  30000.00    226.51   1197.00     .0000    .00027    .00027    .00029    .00031    .00037    .00048
  101  30300.00    227.11   1145.43     .0000    .00024    .00025    .00026    .00029    .00034    .00044
  102  30600.00    227.71   1096.09     .0000    .00022    .00023    .00024    .00026    .00031    .00040
  103  30900.00    228.31   1048.87     .0000    .00021    .00021    .00022    .00024    .00028    .00037
  104  31200.00    228.91   1003.69     .0000    .00019    .00019    .00020    .00022    .00026    .00034
  105  31500.00    229.51    960.45     .0000    .00017    .00018    .00019    .00020    .00024    .00031
  106  31800.00    230.11    919.07     .0000    .00016    .00016    .00017    .00019    .00022    .00028
  107  32100.00    230.71    879.48     .0000    .00015    .00015    .00016    .00017    .00020    .00026
  108  32400.00    231.31    841.59     .0000    .00013    .00014    .00014    .00016    .00019    .00024
  109  32700.00    231.91    805.34     .0000    .00012    .00012    .00013    .00015    .00017    .00022
  110  33000.00    232.51    770.64     .0000    .00011    .00011    .00012    .00013    .00016    .00020
  111  33300.00    233.11    737.44     .0000    .00010    .00011    .00011    .00012    .00014    .00019
  112  33600.00    233.71    705.67     .0000    .00009    .00010    .00010    .00011    .00013    .00017
  113  33900.00    234.31    675.27     .0000    .00009    .00009    .00009    .00010    .00012    .00016
  114  34200.00    234.91    646.18     .0000    .00008    .00008    .00009    .00009    .00011    .00014
  115  34500.00    235.51    618.35     .0000    .00007    .00007    .00008    .00009    .00010    .00013
  116  34800.00    236.11    591.71     .0000    .00007    .00007    .00007    .00008    .00009    .00012
  117  35100.00    236.79    566.67     .0000    .00006    .00006    .00007    .00007    .00009    .00011
  118  35400.00    237.62    543.57     .0000    .00006    .00006    .00006    .00007    .00008    .00010
  119  35700.00    238.45    521.41     .0000    .00005    .00005    .00006    .00006    .00007    .00009
  120  36000.00    239.28    500.16     .0000    .00005    .00005    .00005    .00006    .00007    .00009
  121  36300.00    240.11    479.77     .0000    .00004    .00005    .00005    .00005    .00006    .00008
  122  36600.00    240.94    460.21     .0000    .00004    .00004    .00004    .00005    .00006    .00007
  123  36900.00    241.77    441.45     .0000    .00004    .00004    .00004    .00005    .00005    .00007
  124  37200.00    242.60    423.45     .0000    .00004    .00004    .00004    .00004    .00005    .00006
  125  37500.00    243.43    406.19     .0000    .00003    .00003    .00003    .00004    .00004    .00006
  126  37800.00    244.26    389.63     .0000    .00003    .00003    .00003    .00004    .00004    .00005
  127  38100.00    245.09    373.74     .0000    .00003    .00003    .00003    .00003    .00004    .00005
  128  38400.00    245.92    358.51     .0000    .00003    .00003    .00003    .00003    .00004    .00005
  129  38700.00    246.75    343.89     .0000    .00002    .00002    .00003    .00003    .00003    .00004
  130  39000.00    247.58    329.87     .0000    .00002    .00002    .00002    .00003    .00003    .00004
  131  39300.00    248.41    316.42     .0000    .00002    .00002    .00002    .00002    .00003    .00004
  132  39600.00    249.24    303.53     .0000    .00002    .00002    .00002    .00002    .00003    .00003
  133  39900.00    250.07    291.15     .0000    .00002    .00002    .00002    .00002    .00002    .00003
  134  40200.00    250.90    279.71     .0000    .00002    .00002    .00002    .00002    .00002    .00003
  135  40500.00    251.73    268.93     .0000    .00001    .00001    .00002    .00002    .00002    .00003
  136  40800.00    252.56    258.56     .0000    .00001    .00001    .00001    .00002    .00002    .00002
  137  41100.00    253.39    248.59     .0000    .00001    .00001    .00001    .00001    .00002    .00002
  138  41400.00    254.22    239.00     .0000    .00001    .00001    .00001    .00001    .00002    .00002
  139  41700.00    255.05    229.79     .0000    .00001    .00001    .00001    .00001    .00001    .00002
  140  42000.00    255.88    220.93     .0000    .00001    .00001    .00001    .00001    .00001    .00002
  141  42300.00    256.70    212.41     .0000    .00001    .00001    .00001    .00001    .00001    .00002
  142  42600.00    257.53    204.22     .0000    .00001    .00001    .00001    .00001    .00001    .00002
  143  42900.00    258.36    196.34     .0000    .00001    .00001    .00001    .00001    .00001    .00001
  144  43200.00    259.19    188.77     .0000    .00001    .00001    .00001    .00001    .00001    .00001
  145  43500.00    260.02    181.49     .0000    .00001    .00001    .00001    .00001    .00001    .00001
  146  43800.00    260.85    174.50     .0000    .00001    .00001    .00001    .00001    .00001    .00001
  147  44100.00    261.68    167.77     .0000    .00001    .00001    .00001    .00001    .00001    .00001
  148  44400.00    262.51    161.30     .0000    .00001    .00001    .00001    .00001    .00001    .00001
  149  44700.00    263.34    155.08     .0000    .00000    .00001    .00001    .00001    .00001    .00001
  150  45000.00    264.16    149.10     .0000    .00000    .00000    .00000    .00001    .00001    .00001
  151  45300.00    264.55    143.61     .0000    .00000    .00000    .00000    .00001    .00001    .00001
  152  45600.00    264.94    138.32     .0000    .00000    .00000    .00000    .00000    .00001    .00001
  153  45900.00    265.33    133.23     .0000    .00000    .00000    .00000    .00000    .00001    .00001
  154  46200.00    265.72    128.32     .0000    .00000    .00000    .00000    .00000    .00000    .00001
  155  46500.00    266.11    123.60     .0000    .00000    .00000    .00000    .00000    .00000    .00001
  156  46800.00    266.50    119.04     .0000    .00000    .00000    .00000    .00000    .00000    .00001
  157  47100.00    266.89    114.66     .0000    .00000    .00000    .00000    .00000    .00000    .00000
  158  47400.00    267.28    110.44     .0000    .00000    .00000    .00000    .00000    .00000    .00000
  159  47700.00    267.67    106.37     .0000    .00000    .00000    .00000    .00000    .00000    .00000
  160  48000.00    268.06    102.45     .0000    .00000    .00000    .00000    .00000    .00000    .00000
  161  48300.00    268.44     98.68     .0000    .00000    .00000    .00000    .00000    .00000    .00000
  162  48600.00    268.83     95.05     .0000    .00000    .00000    .00000    .00000    .00000    .00000
  163  48900.00    269.22     91.55     .0000    .00000    .00000    .00000    .00000    .00000    .00000
  164  49200.00    269.61     88.17     .0000    .00000    .00000    .00000    .00000    .00000    .00000
  165  49500.00    270.00     84.93     .0000    .00000    .00000    .00000    .00000    .00000    .00000
  166  49800.00    270.39     81.80     .0000    .00000    .00000    .00000    .00000    .00000    .00000
  167  50100.00    270.45     78.78     .0000    .00000    .00000    .00000    .00000    .00000    .00000
  168  50400.00    269.86     75.86     .0000    .00000    .00000    .00000    .00000    .00000    .00000
  169  50700.00    269.27     73.05     .0000    .00000    .00000    .00000    .00000    .00000    .00000
  170  51000.00    268.67     70.35     .0000    .00000    .00000    .00000    .00000    .00000    .00000
  171  51300.00    268.08     67.74     .0000    .00000    .00000    .00000    .00000    .00000    .00000
  172  51600.00    267.49     65.23     .0000    .00000    .00000    .00000    .00000    .00000    .00000
  173  51900.00    266.90     62.81     .0000    .00000    .00000    .00000    .00000    .00000    .00000
  174  52200.00    266.30     60.49     .0000    .00000    .00000    .00000    .00000    .00000    .00000
  175  52500.00    265.71     58.25     .0000    .00000    .00000    .00000    .00000    .00000    .00000
  176  52800.00    265.12     56.09     .0000    .00000    .00000    .00000    .00000    .00000    .00000
  177  53100.00    264.53     54.01     .0000    .00000    .00000    .00000    .00000    .00000    .00000
  178  53400.00    263.93     52.01     .0000    .00000    .00000    .00000    .00000    .00000    .00000
  179  53700.00    263.34     50.08     .0000    .00000    .00000    .00000    .00000    .00000    .00000
  180  54000.00    262.75     48.23     .0000    .00000    .00000    .00000    .00000    .00000    .00000
  181  54300.00    262.15     46.44     .0000    .00000    .00000    .00000    .00000    .00000    .00000
  182  54600.00    261.56     44.72     .0000    .00000    .00000    .00000    .00000    .00000    .00000
  183  54900.00    260.97     43.06     .0000    .00000    .00000    .00000    .00000    .00000    .00000
  184  55200.00    260.22     41.42     .0000    .00000    .00000    .00000    .00000    .00000    .00000
  185  55500.00    259.40     39.81     .0000    .00000    .00000    .00000    .00000    .00000    .00000
  186  55800.00    258.57     38.26     .0000    .00000    .00000    .00000    .00000    .00000    .00000
  187  56100.00    257.75     36.77     .0000    .00000    .00000    .00000    .00000    .00000    .00000
  188  56400.00    256.92     35.34     .0000    .00000    .00000    .00000    .00000    .00000    .00000
  189  56700.00    256.10     33.97     .0000    .00000    .00000    .00000    .00000    .00000    .00000
  190  57000.00    255.27     32.65     .0000    .00000    .00000    .00000    .00000    .00000    .00000
  191  57300.00    254.45     31.38     .0000    .00000    .00000    .00000    .00000    .00000    .00000
  192  57600.00    253.62     30.16     .0000    .00000    .00000    .00000    .00000    .00000    .00000
  193  57900.00    252.80     28.98     .0000    .00000    .00000    .00000    .00000    .00000    .00000
  194  58200.00    251.97     27.86     .0000    .00000    .00000    .00000    .00000    .00000    .00000
  195  58500.00    251.15     26.77     .0000    .00000    .00000    .00000    .00000    .00000    .00000
  196  58800.00    250.32     25.73     .0000    .00000    .00000    .00000    .00000    .00000    .00000
  197  59100.00    249.50     24.73     .0000    .00000    .00000    .00000    .00000    .00000    .00000
  198  59400.00    248.67     23.77     .0000    .00000    .00000    .00000    .00000    .00000    .00000
  199  59700.00    247.85     22.85     .0000    .00000    .00000    .00000    .00000    .00000    .00000
  200  60000.00    247.02     21.96     .0000    .00000    .00000    .00000    .00000    .00000    .00000
  201  60300.00    246.20     21.06     .0000    .00000    .00000    .00000    .00000    .00000    .00000
  202  60600.00    245.37     20.19     .0000    .00000    .00000    .00000    .00000    .00000    .00000
  203  60900.00    244.55     19.37     .0000    .00000    .00000    .00000    .00000    .00000    .00000
  204  61200.00    243.73     18.57     .0000    .00000    .00000    .00000    .00000    .00000    .00000
  205  61500.00    242.90     17.81     .0000    .00000    .00000    .00000    .00000    .00000    .00000
  206  61800.00    242.08     17.08     .0000    .00000    .00000    .00000    .00000    .00000    .00000
  207  62100.00    241.25     16.38     .0000    .00000    .00000    .00000    .00000    .00000    .00000
  208  62400.00    240.43     15.71     .0000    .00000    .00000    .00000    .00000    .00000    .00000
  209  62700.00    239.61     15.06     .0000    .00000    .00000    .00000    .00000    .00000    .00000
  210  63000.00    238.78     14.45     .0000    .00000    .00000    .00000    .00000    .00000    .00000
  211  63300.00    237.96     13.85     .0000    .00000    .00000    .00000    .00000    .00000    .00000
  212  63600.00    237.14     13.29     .0000    .00000    .00000    .00000    .00000    .00000    .00000
  213  63900.00    236.31     12.74     .0000    .00000    .00000    .00000    .00000    .00000    .00000
  214  64200.00    235.49     12.22     .0000    .00000    .00000    .00000    .00000    .00000    .00000
  215  64500.00    234.66     11.72     .0000    .00000    .00000    .00000    .00000    .00000    .00000
  216  64800.00    233.84     11.24     .0000    .00000    .00000    .00000    .00000    .00000    .00000
  217  65100.00    233.02     10.77     .0000    .00000    .00000    .00000    .00000    .00000    .00000
  218  65400.00    232.20     10.30     .0000    .00000    .00000    .00000    .00000    .00000    .00000
  219  65700.00    231.37      9.86     .0000    .00000    .00000    .00000    .00000    .00000    .00000
  220  66000.00    230.55      9.43     .0000    .00000    .00000    .00000    .00000    .00000    .00000
  221  66300.00    229.73      9.02     .0000    .00000    .00000    .00000    .00000    .00000    .00000
  222  66600.00    228.91      8.63     .0000    .00000    .00000    .00000    .00000    .00000    .00000
  223  66900.00    228.08      8.25     .0000    .00000    .00000    .00000    .00000    .00000    .00000
  224  67200.00    227.26      7.90     .0000    .00000    .00000    .00000    .00000    .00000    .00000
  225  67500.00    226.44      7.55     .0000    .00000    .00000    .00000    .00000    .00000    .00000
  226  67800.00    225.62      7.23     .0000    .00000    .00000    .00000    .00000    .00000    .00000
  227  68100.00    224.79      6.91     .0000    .00000    .00000    .00000    .00000    .00000    .00000
  228  68400.00    223.97      6.61     .0000    .00000    .00000    .00000    .00000    .00000    .00000
  229  68700.00    223.15      6.33     .0000    .00000    .00000    .00000    .00000    .00000    .00000
  230  69000.00    222.33      6.05     .0000    .00000    .00000    .00000    .00000    .00000    .00000
  231  69300.00    221.50      5.79     .0000    .00000    .00000    .00000    .00000    .00000    .00000
  232  69600.00    220.68      5.54     .0000    .00000    .00000    .00000    .00000    .00000    .00000
  233  69900.00    219.86      5.30     .0000    .00000    .00000    .00000    .00000    .00000    .00000
  234  70200.00    219.14      5.06     .0000    .00000    .00000    .00000    .00000    .00000    .00000
  235  70500.00    218.47      4.83     .0000    .00000    .00000    .00000    .00000    .00000    .00000
  236  70800.00    217.80      4.61     .0000    .00000    .00000    .00000    .00000    .00000    .00000
  237  71100.00    217.12      4.40     .0000    .00000    .00000    .00000    .00000    .00000    .00000
  238  71400.00    216.45      4.19     .0000    .00000    .00000    .00000    .00000    .00000    .00000
  239  71700.00    215.78      4.00     .0000    .00000    .00000    .00000    .00000    .00000    .00000
  240  72000.00    215.11      3.82     .0000    .00000    .00000    .00000    .00000    .00000    .00000
  241  72300.00    214.44      3.64     .0000    .00000    .00000    .00000    .00000    .00000    .00000
  242  72600.00    213.77      3.48     .0000    .00000    .00000    .00000    .00000    .00000    .00000
  243  72900.00    213.10      3.32     .0000    .00000    .00000    .00000    .00000    .00000    .00000
  244  73200.00    212.43      3.16     .0000    .00000    .00000    .00000    .00000    .00000    .00000
  245  73500.00    211.75      3.02     .0000    .00000    .00000    .00000    .00000    .00000    .00000
  246  73800.00    211.08      2.88     .0000    .00000    .00000    .00000    .00000    .00000    .00000
  247  74100.00    210.41      2.75     .0000    .00000    .00000    .00000    .00000    .00000    .00000
  248  74400.00    209.74      2.62     .0000    .00000    .00000    .00000    .00000    .00000    .00000
  249  74700.00    209.07      2.50     .0000    .00000    .00000    .00000    .00000    .00000    .00000
  250  75000.00    208.40      2.39     .0000    .00000    .00000    .00000    .00000    .00000    .00000
  251  75300.00    207.81      2.27     .0000    .00000    .00000    .00000    .00000    .00000    .00000
  252  75600.00    207.23      2.16     .0000    .00000    .00000    .00000    .00000    .00000    .00000
  253  75900.00    206.64      2.06     .0000    .00000    .00000    .00000    .00000    .00000    .00000
  254  76200.00    206.06      1.96     .0000    .00000    .00000    .00000    .00000    .00000    .00000
  255  76500.00    205.47      1.87     .0000    .00000    .00000    .00000    .00000    .00000    .00000
  256  76800.00    204.89      1.78     .0000    .00000    .00000    .00000    .00000    .00000    .00000
  257  77100.00    204.30      1.69     .0000    .00000    .00000    .00000    .00000    .00000    .00000
  258  77400.00    203.71      1.61     .0000    .00000    .00000    .00000    .00000    .00000    .00000
  259  77700.00    203.13      1.53     .0000    .00000    .00000    .00000    .00000    .00000    .00000
  260  78000.00    202.54      1.46     .0000    .00000    .00000    .00000    .00000    .00000    .00000
  261  78300.00    201.96      1.39     .0000    .00000    .00000    .00000    .00000    .00000    .00000
  262  78600.00    201.37      1.32     .0000    .00000    .00000    .00000    .00000    .00000    .00000
  263  78900.00    200.79      1.26     .0000    .00000    .00000    .00000    .00000    .00000    .00000
  264  79200.00    200.20      1.20     .0000    .00000    .00000    .00000    .00000    .00000    .00000
  265  79500.00    199.62      1.14     .0000    .00000    .00000    .00000    .00000    .00000    .00000
  266  79800.00    199.03      1.09     .0000    .00000    .00000    .00000    .00000    .00000    .00000
  267  80100.00    198.44      1.03     .0000    .00000    .00000    .00000    .00000    .00000    .00000
  268  80400.00    197.86       .98     .0000    .00000    .00000    .00000    .00000    .00000    .00000
  269  80700.00    197.27       .93     .0000    .00000    .00000    .00000    .00000    .00000    .00000
  270  81000.00    196.69       .89     .0000    .00000    .00000    .00000    .00000    .00000    .00000
  271  81300.00    196.11       .84     .0000    .00000    .00000    .00000    .00000    .00000    .00000
  272  81600.00    195.52       .80     .0000    .00000    .00000    .00000    .00000    .00000    .00000
  273  81900.00    194.94       .76     .0000    .00000    .00000    .00000    .00000    .00000    .00000
  274  82200.00    194.35       .72     .0000    .00000    .00000    .00000    .00000    .00000    .00000
  275  82500.00    193.77       .68     .0000    .00000    .00000    .00000    .00000    .00000    .00000
  276  82800.00    193.18       .65     .0000    .00000    .00000    .00000    .00000    .00000    .00000
  277  83100.00    192.60       .62     .0000    .00000    .00000    .00000    .00000    .00000    .00000
  278  83400.00    192.01       .59     .0000    .00000    .00000    .00000    .00000    .00000    .00000
  279  83700.00    191.43       .56     .0000    .00000    .00000    .00000    .00000    .00000    .00000
  280  84000.00    190.84       .53     .0000    .00000    .00000    .00000    .00000    .00000    .00000
  281  84300.00    190.26       .50     .0000    .00000    .00000    .00000    .00000    .00000    .00000
  282  84600.00    189.67       .48     .0000    .00000    .00000    .00000    .00000    .00000    .00000
  283  84900.00    189.09       .45     .0000    .00000    .00000    .00000    .00000    .00000    .00000
  284  85200.00    188.81       .43     .0000    .00000    .00000    .00000    .00000    .00000    .00000
  285  85500.00    188.69       .41     .0000    .00000    .00000    .00000    .00000    .00000    .00000
  286  85800.00    188.57       .39     .0000    .00000    .00000    .00000    .00000    .00000    .00000
  287  86100.00    188.45       .37     .0000    .00000    .00000    .00000    .00000    .00000    .00000
  288  86400.00    188.33       .35     .0000    .00000    .00000    .00000    .00000    .00000    .00000
  289  86700.00    188.21       .33     .0000    .00000    .00000    .00000    .00000    .00000    .00000
  290  87000.00    188.08       .31     .0000    .00000    .00000    .00000    .00000    .00000    .00000
  291  87300.00    187.96       .30     .0000    .00000    .00000    .00000    .00000    .00000    .00000
  292  87600.00    187.84       .28     .0000    .00000    .00000    .00000    .00000    .00000    .00000
  293  87900.00    187.72       .27     .0000    .00000    .00000    .00000    .00000    .00000    .00000
  294  88200.00    187.60       .25     .0000    .00000    .00000    .00000    .00000    .00000    .00000
  295  88500.00    187.48       .24     .0000    .00000    .00000    .00000    .00000    .00000    .00000
  296  88800.00    187.36       .23     .0000    .00000    .00000    .00000    .00000    .00000    .00000
  297  89100.00    187.23       .22     .0000    .00000    .00000    .00000    .00000    .00000    .00000
  298  89400.00    187.11       .20     .0000    .00000    .00000    .00000    .00000    .00000    .00000
  299  89700.00    186.99       .19     .0000    .00000    .00000    .00000    .00000    .00000    .00000
  Surface Weight                                 .072648   .068829   .058032   .042186   .024336   .008595
  TB (from full RTM)                            249.3573  249.0322  248.0312  246.2366  243.3108  238.4318
  TB (From weighting function)                  249.2734  248.9486  247.9487  246.1558  243.2320  238.3543
